IESNA:LM-63-2002
[TEST] 
[TESTLAB] EVERFINE
[TESTDATE] 2018-12-07
[ISSUEDATE] 2018-12-07 20:19:29
[NEARFIELD] 
[LAMPPOSITION] 0,0
[OTHER] EVERFINE GO-2000B_V1 SYSTEM
[MANUFAC] LUXTRON SYSTEMS
[LUMINAIRE]  20 DEGREES
[LAMP] SPYRO T-S 
[OTHER] 
[OTHER] Gamma(deg)    Fz(lm)      Ft(lm)     %Lum    %Lamp
[OTHER]   0- 10       641.28      641.28    32.66    32.66
[OTHER]  10- 20       557.98     1199.26    61.07    61.07
[OTHER]  20- 30       355.87     1555.13    79.20    79.20
[OTHER]  30- 40       292.44     1847.56    94.09    94.09
[OTHER]  40- 50        40.53     1888.10    96.16    96.16
[OTHER]  50- 60        30.82     1918.92    97.72    97.72
[OTHER]  60- 70        21.13     1940.04    98.80    98.80
[OTHER]  70- 80        15.90     1955.94    99.61    99.61
[OTHER]  80- 90         7.65     1963.59   100.00   100.00
[OTHER]  90-100         0.00     1963.59   100.00   100.00
[OTHER] 100-110         0.00     1963.59   100.00   100.00
[OTHER] 110-120         0.00     1963.59   100.00   100.00
[OTHER] 120-130         0.00     1963.59   100.00   100.00
[OTHER] 130-140         0.00     1963.59   100.00   100.00
[OTHER] 140-150         0.00     1963.59   100.00   100.00
[OTHER] 150-160         0.00     1963.59   100.00   100.00
[OTHER] 160-170         0.00     1963.59   100.00   100.00
[OTHER] 170-180         0.00     1963.59   100.00   100.00
[OTHER] 
TILT=NONE
1 1963.6 1 91 7 1 2 0.000 0.000 0.000
1.000 1 20.8
0.0    1.0    2.0    3.0    4.0    5.0    6.0    7.0    8.0    9.0    
 10.0   11.0   12.0   13.0   14.0   15.0   16.0   17.0   18.0   19.0   
 20.0   21.0   22.0   23.0   24.0   25.0   26.0   27.0   28.0   29.0   
 30.0   31.0   32.0   33.0   34.0   35.0   36.0   37.0   38.0   39.0   
 40.0   41.0   42.0   43.0   44.0   45.0   46.0   47.0   48.0   49.0   
 50.0   51.0   52.0   53.0   54.0   55.0   56.0   57.0   58.0   59.0   
 60.0   61.0   62.0   63.0   64.0   65.0   66.0   67.0   68.0   69.0   
 70.0   71.0   72.0   73.0   74.0   75.0   76.0   77.0   78.0   79.0   
 80.0   81.0   82.0   83.0   84.0   85.0   86.0   87.0   88.0   89.0   
 90.0   
0.0    15.0   30.0   45.0   60.0   75.0   90.0   
9204.65  9127.12  8925.44  8641.17  8286.42  7813.00  7259.73  6660.54  6040.40  5353.42  
 4639.83  3941.77  3265.96  2658.31  2155.16  1743.16  1444.22  1219.65  1090.49  962.50   
 885.67   837.81   809.72   788.57   773.64   759.63   749.31   739.54   730.60   723.24   
 715.28   707.48   697.67   686.67   645.55   560.93   455.12   340.66   230.44   137.16   
 100.02   63.58    55.32    51.92    49.60    49.24    49.24    47.54    44.90    43.79    
 43.54    41.85    40.47    37.40    35.16    33.60    32.71    30.90    27.55    26.52    
 25.86    24.69    23.05    22.47    21.64    20.80    20.07    19.59    19.03    18.77    
 18.38    17.78    17.30    16.85    16.13    15.21    14.16    13.49    13.02    12.49    
 11.76    10.51    9.64     9.34     8.95     8.47     7.70     6.09     3.86     1.56     
 0.00     
9201.42  9173.30  9008.72  8758.82  8445.63  8013.25  7464.55  6882.06  6255.94  5591.18  
 4907.15  4217.10  3559.10  2984.99  2412.01  1965.82  1600.14  1339.20  1141.45  1006.40  
 911.30   853.16   817.71   791.37   774.41   760.61   749.67   741.05   731.37   723.84   
 715.61   706.18   696.76   686.76   661.59   585.09   481.25   373.47   268.68   164.21   
 94.56    66.99    58.01    54.22    51.59    49.79    49.05    48.26    46.31    44.34    
 44.04    42.72    40.70    38.68    35.96    33.99    33.38    31.45    28.48    27.16    
 26.28    24.88    23.16    22.65    21.98    20.86    20.01    19.63    19.07    18.78    
 18.41    17.96    17.32    16.92    16.31    15.41    14.34    13.55    13.04    12.54    
 11.92    10.76    9.67     9.36     9.00     8.54     7.86     6.46     4.33     1.96     
 0.00     
9199.59  9149.56  8994.85  8729.41  8405.28  7955.86  7389.17  6799.37  6177.69  5524.81  
 4848.26  4178.52  3541.76  2929.53  2376.74  1920.45  1564.11  1310.95  1177.54  1045.61  
 913.68   855.45   817.93   793.72   775.44   760.68   749.09   737.97   728.26   719.41   
 710.22   701.15   689.00   676.59   641.41   561.60   461.76   352.34   249.29   156.14   
 111.34   67.15    57.57    54.07    51.62    49.98    49.52    48.59    45.95    44.40    
 44.01    42.41    40.63    38.11    35.97    33.87    33.31    31.25    28.19    27.33    
 26.30    24.88    23.16    22.61    21.98    20.93    20.05    19.61    19.09    18.79    
 18.45    17.90    17.32    16.87    16.20    15.32    14.24    13.46    12.97    12.46    
 11.84    10.75    9.70     9.40     9.03     8.56     7.84     6.38     4.29     1.92     
 0.01     
9180.06  9166.21  9058.89  8815.79  8516.78  8127.74  7575.23  6986.64  6376.17  5742.03  
 5071.33  4377.46  3711.79  3169.24  2626.68  2085.49  1693.15  1403.73  1193.30  1047.03  
 944.40   877.86   832.22   802.13   781.81   765.30   752.31   740.63   729.85   719.92   
 709.31   699.20   689.19   678.79   659.35   591.41   495.06   387.35   284.05   181.02   
 105.49   69.45    60.09    55.20    52.52    50.90    50.23    49.25    46.63    44.99    
 44.45    43.12    41.10    39.32    36.39    33.98    33.77    32.16    29.16    27.29    
 26.51    25.52    23.36    22.83    22.11    21.22    20.07    19.67    19.15    18.80    
 18.50    18.03    17.34    16.92    16.31    15.41    14.30    13.46    12.95    12.47    
 11.90    10.88    9.75     9.41     9.05     8.60     7.94     6.65     4.62     2.18     
 0.00     
9177.82  9150.99  9038.61  8794.04  8469.71  8045.23  7479.27  6881.16  6256.88  5588.16  
 4918.92  4235.10  3585.27  2980.81  2435.19  1967.73  1602.12  1339.28  1200.15  1062.54  
 924.94   863.95   823.27   796.74   776.87   762.35   749.38   738.15   727.32   718.37   
 709.04   700.02   689.70   678.39   652.36   580.90   482.68   373.41   264.45   167.51   
 117.06   67.20    57.47    54.04    52.02    50.55    49.98    48.35    46.52    45.15    
 44.57    43.10    41.33    39.49    36.89    34.67    33.99    32.00    29.16    27.80    
 26.38    25.30    23.40    22.78    22.08    21.00    20.06    19.54    19.07    18.75    
 18.40    17.86    17.29    16.82    16.15    15.23    14.11    13.33    12.87    12.38    
 11.78    10.75    9.73     9.43     9.06     8.59     7.88     6.45     4.39     2.00     
 0.02     
9161.32  9172.03  9056.20  8842.32  8543.47  8126.78  7605.95  7014.69  6387.80  5732.20  
 5043.63  4360.19  3693.66  3148.10  2602.53  2058.42  1672.48  1386.97  1177.00  1036.05  
 931.41   866.27   827.43   798.65   780.15   765.22   752.86   741.73   732.22   722.94   
 715.07   706.05   697.48   687.11   666.51   598.87   500.50   393.07   286.50   180.21   
 103.53   68.27    58.31    53.57    51.36    50.56    50.38    48.67    46.96    45.46    
 44.88    43.81    41.89    40.07    37.42    34.64    34.00    32.35    29.56    27.75    
 26.50    25.54    23.52    23.06    22.26    21.18    20.08    19.59    19.07    18.69    
 18.35    17.85    17.21    16.79    16.17    15.22    14.15    13.35    12.85    12.36    
 11.80    10.82    9.75     9.43     9.07     8.61     7.94     6.59     4.52     2.09     
 0.00     
9298.09  9337.56  9253.87  9070.78  8753.98  8325.10  7783.36  7198.58  6565.34  5905.50  
 5219.27  4519.99  3847.64  3273.65  2699.66  2127.63  1720.12  1412.39  1198.85  1054.41  
 948.75   883.14   842.81   814.84   794.43   779.63   766.86   754.92   744.33   735.13   
 725.38   717.48   707.63   696.41   677.62   619.33   527.31   421.41   318.58   215.74   
 113.67   71.95    61.11    54.91    52.42    50.73    50.59    49.69    47.69    46.06    
 45.46    44.71    42.56    40.83    38.25    35.61    34.62    33.21    30.74    28.40    
 27.64    26.22    24.12    23.25    22.67    21.80    20.48    19.98    19.38    18.97    
 18.59    18.16    17.54    17.09    16.51    15.58    14.50    13.66    13.10    12.63    
 12.09    11.23    10.06    9.64     9.30     8.86     8.23     7.10     5.17     2.63     
 0.25     
